# Silber Messung/10s counts
 1      156
 2      143
 3      106
 4       85
 5       67
 6       42
 7       57
 8       36
 9       42
10       30
11       29
12       21
13       28
14       21
15       34
16       10
17       14
18       17
19       13
20       13
21       19
22       18
23       13
24        9
25       23
26       12
27        9
28       11
29       11
30       16
31        9
32        9
33       20
34        6
35        6
36       10
37        4
38       21
39       16
40       12
41        6
42       11